#C'dt(s)', 'X(V)', 'X(V)', 'R(V)', 'PHASE(degrees)', 'FREQ(Hz)', 'dt(s)'
#I'TIME[].dt', 'SR830[GPIB0::1::INSTR].X', 'SR830[GPIB0::1::INSTR].X', 'SR830[GPIB0::1::INSTR].R', 'SR830[GPIB0::1::INSTR].PHASE', 'SR830[GPIB0::1::INSTR].FREQ', 'TIME[].dt'
#P'dt', 'X', 'X', 'R', 'PHASE', 'FREQ', 'dt'
1.2  0.0159913  0.00177003  0.0214845  -38.196  100000.0  1.28
2.44  0.00305177  0.0153809  0.0158082  16.458  98390.0  2.51
3.68  0.0134278  0.0117798  0.0213624  3.18  96820.0  3.75
4.93  0.0181886  0.0116578  0.013733  -5.79  95270.0  5.01
6.17  0.00988775  0.011963  0.0151978  9.024  93750.0  6.25
7.41  0.0121461  0.0117798  0.0160524  32.784  92240.0  7.49
8.65  0.00836188  0.0150757  0.0106202  2.028  90770.0  8.73
9.89  0.0104981  0.0148316  0.0140381  9.882  89320.0  9.97
11.15  0.0106202  0.00604251  0.0105591  -2.436  87890.0  11.23
12.41  0.00976568  0.0109254  0.0144654  -5.646  86480.0  12.48
13.65  0.0133057  0.0145875  0.0132447  -2.718  85100.0  13.72
14.89  0.0104371  0.0145264  0.0127564  1.662  83730.0  14.96
16.13  0.0141602  0.0132447  0.0153809  9.882  82390.0  16.2
17.37  0.0128174  0.0125123  0.0112916  4.116  81070.0  17.44
18.62  0.0111085  0.0121461  0.0100709  -1.998  79780.0  18.7
19.86  0.0119019  0.0111085  0.0125733  -1.59  78500.0  19.94
21.1  0.012085  0.0112916  0.0131226  -1.92  77240.0  21.17
22.34  0.0131837  0.0112916  0.0112916  1.374  76010.0  22.41
23.58  0.012024  0.0112305  0.0116578  -2.934  74790.0  23.66
24.82  0.0119019  0.0128174  0.0117188  3.06  73590.0  24.9
26.06  0.011963  0.0116578  0.0114136  -0.162  72420.0  26.14
27.3  0.0117188  0.0118409  0.0122681  2.664  71260.0  27.38
28.53  0.0124512  0.0119019  0.0118409  -2.556  70120.0  28.61
29.78  0.0124512  0.0106202  0.0111695  0.306  68990.0  29.85
31.02  0.0116578  0.0116578  0.0117188  2.49  67890.0  31.09
32.24  0.0116578  0.0109864  0.0117188  1.308  66800.0  32.32
33.48  0.011963  0.0116578  0.012024  1.428  65730.0  33.55
34.71  0.0113526  0.0124512  0.011963  1.422  64680.0  34.78
35.95  0.0114747  0.0123292  0.0117188  -1.812  63650.0  36.03
37.19  0.0121461  0.0114136  0.0114747  -1.41  62630.0  37.26
38.43  0.0116578  0.012024  0.0118409  -1.14  61620.0  38.51
39.69  0.0119019  0.012085  0.0116578  0.462  60640.0  39.76
40.92  0.0112305  0.0117798  0.0123902  -0.978  59670.0  40.99
42.16  0.0117798  0.0117188  0.0117188  0.324  58710.0  42.24
43.39  0.0114136  0.012085  0.0117188  -3.216  57770.0  43.46
44.63  0.0118409  0.0118409  0.0117798  0.156  56850.0  44.7
45.87  0.0124512  0.0117798  0.0117188  -1.308  55940.0  45.94
47.11  0.011963  0.0118409  0.0119019  1.752  55040.0  47.18
48.35  0.0114136  0.0122071  0.0119019  -0.666  54160.0  48.43
49.6  0.011963  0.0115357  0.0118409  -0.312  53290.0  49.67
50.82  0.012085  0.0115967  0.0118409  -0.324  52440.0  50.9
52.08  0.011963  0.0117188  0.0115967  -0.63  51600.0  52.15
53.32  0.0117798  0.0117188  0.0115967  -0.318  50780.0  53.39
54.61  0.0119019  0.0118409  0.0118409  0.0  49960.0  54.67
55.83  0.0118409  0.0118409  0.0119019  0.0  49160.0  55.9
57.06  0.0118409  0.0118409  0.0119019  -0.162  48380.0  57.13
58.28  0.0118409  0.0119019  0.0118409  0.0  47600.0  58.35
59.52  0.0118409  0.0118409  0.0118409  -0.162  46840.0  59.59
60.75  0.0118409  0.011963  0.0118409  0.0  46090.0  60.82
61.97  0.0118409  0.0119019  0.0118409  0.0  45350.0  62.04
63.21  0.0118409  0.0118409  0.0119019  0.0  44630.0  63.28
64.43  0.0118409  0.0118409  0.0118409  0.0  43910.0  64.5
65.66  0.0118409  0.0118409  0.0118409  0.0  43210.0  65.73
66.89  0.0118409  0.011963  0.0118409  -0.162  42520.0  66.96
68.13  0.0119019  0.0119019  0.0118409  0.0  41840.0  68.2
69.35  0.0118409  0.0118409  0.0118409  -0.162  41170.0  69.42
70.59  0.0119019  0.0118409  0.0118409  0.162  40510.0  70.66
71.82  0.0118409  0.0118409  0.0117798  0.0  39860.0  71.89
73.04  0.0119019  0.0119019  0.0118409  0.162  39220.0  73.12
74.27  0.0118409  0.0119019  0.0118409  0.162  38590.0  74.34
75.5  0.0118409  0.0118409  0.0118409  0.162  37980.0  75.57
76.73  0.0119019  0.0118409  0.0118409  0.0  37370.0  76.79
77.95  0.0119019  0.0119019  0.0118409  0.0  36770.0  78.02
79.2  0.0117798  0.0118409  0.0119019  0.162  36180.0  79.27
80.44  0.0118409  0.0118409  0.0118409  0.0  35600.0  80.51
81.68  0.0118409  0.0119019  0.0119019  0.0  35030.0  81.75
82.91  0.0118409  0.0119019  0.0118409  0.0  34470.0  82.97
84.14  0.0118409  0.0118409  0.0118409  0.162  33920.0  84.21
85.38  0.0119019  0.0119019  0.0117798  0.162  33380.0  85.45
86.6  0.0118409  0.0118409  0.0118409  0.318  32840.0  86.68
87.83  0.0118409  0.0118409  0.0118409  0.162  32320.0  87.91
89.07  0.0119019  0.0119019  0.0118409  0.0  31800.0  89.14
90.29  0.0118409  0.0118409  0.0119019  0.318  31290.0  90.37
91.53  0.0119019  0.0118409  0.0119019  0.162  30790.0  91.6
92.77  0.0118409  0.0118409  0.0119019  0.162  30300.0  92.84
93.99  0.0118409  0.0118409  0.0118409  0.0  29810.0  94.07
95.24  0.0118409  0.0119019  0.0118409  0.318  29340.0  95.31
96.48  0.011963  0.0118409  0.0118409  0.162  28870.0  96.55
97.71  0.0119019  0.0118409  0.011963  0.0  28400.0  97.78
98.94  0.0119019  0.0118409  0.0118409  0.318  27950.0  99.01
100.18  0.0118409  0.0118409  0.0119019  0.0  27500.0  100.25
101.41  0.0118409  0.0118409  0.0118409  0.162  27060.0  101.48
102.65  0.0119019  0.0118409  0.0119019  0.162  26630.0  102.72
103.88  0.0118409  0.0118409  0.0118409  0.318  26200.0  103.96
105.14  0.011963  0.0118409  0.0118409  0.318  25780.0  105.22
106.38  0.0118409  0.0118409  0.0118409  0.162  25370.0  106.45
107.61  0.0118409  0.0118409  0.0118409  0.318  24960.0  107.68
108.85  0.0118409  0.0118409  0.0119019  0.318  24560.0  108.93
110.09  0.0118409  0.0118409  0.0118409  0.318  24170.0  110.16
111.32  0.0118409  0.0118409  0.0119019  0.162  23780.0  111.39
112.56  0.011963  0.0118409  0.0118409  0.324  23400.0  112.63
113.8  0.0118409  0.0118409  0.0118409  0.162  23030.0  113.88
115.04  0.0118409  0.0118409  0.0118409  0.162  22660.0  115.11
116.29  0.0118409  0.0118409  0.0118409  0.162  22300.0  116.36
117.53  0.0118409  0.0118409  0.0118409  0.324  21940.0  117.6
118.77  0.0118409  0.0118409  0.0118409  0.162  21590.0  118.84
119.99  0.0118409  0.0118409  0.0118409  0.162  21240.0  120.07
121.24  0.0118409  0.0119019  0.0118409  0.162  20900.0  121.31
122.47  0.0119019  0.0118409  0.0119019  0.162  20570.0  122.55
123.71  0.0118409  0.0118409  0.0119019  0.162  20240.0  123.79
124.95  0.0119019  0.0119019  0.0119019  0.318  19920.0  125.03
126.19  0.0118409  0.0118409  0.0118409  0.318  19601.0  126.27
127.44  0.0119019  0.0118409  0.0118409  0.318  19287.0  127.51
128.67  0.0119019  0.011963  0.0118409  0.318  18979.0  128.74
129.91  0.0118409  0.0118409  0.011963  0.318  18675.0  129.98
131.15  0.0118409  0.0118409  0.0119019  0.318  18376.0  131.23
132.41  0.0118409  0.0118409  0.0119019  0.318  18082.0  132.48
133.65  0.0118409  0.0118409  0.0118409  0.318  17793.0  133.72
134.91  0.0118409  0.011963  0.0118409  0.48  17508.0  134.98
136.13  0.0118409  0.0119019  0.0118409  0.162  17228.0  136.21
137.37  0.0119019  0.0118409  0.0118409  0.318  16952.0  137.44
138.62  0.0118409  0.0118409  0.0118409  0.324  16681.0  138.69
139.85  0.0119019  0.0118409  0.0119019  0.162  16414.0  139.92
141.09  0.0119019  0.0118409  0.0118409  0.318  16151.0  141.17
142.33  0.0119019  0.0118409  0.0118409  0.48  15892.0  142.41
143.57  0.0118409  0.0118409  0.0119019  0.318  15638.0  143.65
144.82  0.0118409  0.0119019  0.0119019  0.48  15388.0  144.89
146.13  0.0118409  0.0118409  0.0119019  0.318  15141.0  146.21
147.37  0.0118409  0.0118409  0.0118409  0.318  14899.0  147.45
148.61  0.0118409  0.0118409  0.0118409  0.48  14661.0  148.69
149.86  0.0118409  0.0119019  0.0119019  0.48  14426.0  149.94
151.11  0.0118409  0.0118409  0.0118409  0.48  14195.0  151.18
152.35  0.0118409  0.0118409  0.0118409  0.318  13968.0  152.42
153.59  0.0118409  0.0118409  0.0118409  0.48  13744.0  153.66
154.83  0.0118409  0.0118409  0.0118409  0.48  13524.0  154.9
156.07  0.0118409  0.0118409  0.0118409  0.48  13308.0  156.14
157.31  0.0118409  0.0118409  0.0118409  0.642  13095.0  157.38
158.56  0.0118409  0.0118409  0.0118409  0.48  12885.0  158.64
159.81  0.0118409  0.0118409  0.0118409  0.48  12679.0  159.88
161.06  0.0118409  0.0118409  0.0118409  0.48  12476.0  161.13
162.29  0.0118409  0.0119019  0.0118409  0.48  12276.0  162.37
163.54  0.0118409  0.0119019  0.0119019  0.48  12080.0  163.62
164.81  0.0118409  0.0118409  0.0118409  0.48  11887.0  164.89
166.06  0.0118409  0.0118409  0.0118409  0.48  11696.0  166.13
167.3  0.0118409  0.0118409  0.0119019  0.48  11509.0  167.37
168.54  0.0118409  0.0118409  0.0118409  0.48  11325.0  168.62
169.78  0.0119019  0.0118409  0.0118409  0.642  11144.0  169.86
171.03  0.0118409  0.0118409  0.0118409  0.48  10965.0  171.1
172.27  0.0118409  0.0119019  0.0118409  0.48  10790.0  172.35
173.52  0.0118409  0.0118409  0.0118409  0.642  10617.0  173.59
174.76  0.0118409  0.0118409  0.0118409  0.48  10447.0  174.83
176.0  0.0118409  0.0118409  0.0118409  0.642  10280.0  176.07
177.24  0.0118409  0.0118409  0.0118409  0.642  10115.0  177.31
178.49  0.0118409  0.0118409  0.0118409  0.642  9954.0  178.57
179.76  0.0118409  0.0118409  0.0118409  0.642  9794.0  179.84
181.01  0.0119019  0.0118409  0.0118409  0.642  9637.0  181.09
182.25  0.0118409  0.0118409  0.0118409  0.642  9483.0  182.33
183.5  0.0118409  0.0118409  0.0118409  0.642  9331.0  183.57
184.75  0.0118409  0.0118409  0.0118409  0.642  9182.0  184.82
186.0  0.0118409  0.0118409  0.0118409  0.804  9035.0  186.08
187.24  0.0118409  0.0118409  0.0118409  0.804  8890.0  187.32
188.49  0.0118409  0.0118409  0.0118409  0.642  8748.0  188.56
189.73  0.0118409  0.0118409  0.0118409  0.642  8608.0  189.81
190.97  0.0118409  0.0119019  0.0118409  0.642  8470.0  191.05
192.21  0.0118409  0.0118409  0.0118409  0.642  8335.0  192.29
193.45  0.0119019  0.0118409  0.0118409  0.804  8201.0  193.53
194.7  0.0118409  0.0118409  0.0118409  0.804  8070.0  194.77
195.95  0.0118409  0.0118409  0.0118409  0.804  7941.0  196.03
197.19  0.0119019  0.0118409  0.0118409  0.798  7814.0  197.27
198.44  0.0118409  0.0118409  0.0118409  0.804  7689.0  198.52
199.68  0.0118409  0.0118409  0.0118409  0.804  7566.0  199.76
200.92  0.0118409  0.0118409  0.0118409  0.804  7445.0  201.0
202.17  0.0118409  0.0118409  0.0118409  0.804  7325.0  202.24
203.41  0.0118409  0.0118409  0.0118409  0.804  7208.0  203.49
204.68  0.0119019  0.0118409  0.0118409  0.804  7093.0  204.76
205.93  0.0118409  0.0118409  0.0118409  0.804  6979.0  206.0
207.17  0.0118409  0.0118409  0.0118409  0.96  6868.0  207.24
208.42  0.0118409  0.0118409  0.0118409  0.96  6758.0  208.5
209.67  0.0118409  0.0118409  0.0118409  0.96  6650.0  209.74
210.91  0.0118409  0.0118409  0.0118409  0.96  6543.0  210.98
212.15  0.0118409  0.0118409  0.0118409  0.966  6438.0  212.22
213.39  0.0118409  0.0118409  0.0118409  0.804  6335.0  213.46
214.63  0.0118409  0.0118409  0.0118409  0.804  6234.0  214.71
215.88  0.0118409  0.0118409  0.0118409  0.966  6134.0  215.95
217.11  0.0118409  0.0118409  0.0118409  0.804  6036.0  217.19
218.36  0.0118409  0.0118409  0.0118409  0.966  5939.0  218.43
219.6  0.0118409  0.0118409  0.0118409  1.122  5844.0  219.67
220.85  0.0118409  0.0118409  0.0119019  1.122  5751.0  220.93
222.09  0.0118409  0.0118409  0.0118409  1.122  5659.0  222.17
223.34  0.0118409  0.0118409  0.0118409  0.96  5568.0  223.41
224.59  0.0118409  0.0118409  0.0118409  1.128  5479.0  224.67
225.83  0.0118409  0.0118409  0.0118409  1.128  5391.0  225.91
227.07  0.0118409  0.0118409  0.0118409  1.122  5305.0  227.15
228.32  0.0118409  0.0118409  0.0118409  1.284  5220.0  228.4
229.57  0.0118409  0.0118409  0.0118409  1.122  5137.0  229.65
230.81  0.0118409  0.0118409  0.0119019  1.122  5054.0  230.89
232.12  0.0118409  0.0118409  0.0118409  1.128  4973.0  232.19
233.36  0.0118409  0.0118409  0.0118409  1.122  4894.0  233.43
234.6  0.0118409  0.0118409  0.0118409  1.122  4815.0  234.68
235.86  0.0118409  0.0118409  0.0118409  1.122  4738.0  235.93
237.12  0.0118409  0.0118409  0.0118409  1.284  4663.0  237.19
238.36  0.0118409  0.0118409  0.0118409  1.284  4588.0  238.43
239.6  0.0118409  0.0118409  0.0118409  1.29  4514.0  239.67
240.86  0.0118409  0.0118409  0.0118409  1.29  4442.0  240.94
242.12  0.0118409  0.0118409  0.0118409  1.284  4371.0  242.19
243.36  0.0118409  0.0118409  0.0118409  1.29  4301.0  243.43
244.6  0.0118409  0.0118409  0.0118409  1.29  4232.0  244.68
245.85  0.0118409  0.0118409  0.0118409  1.284  4165.0  245.92
247.09  0.0118409  0.0118409  0.0118409  1.284  4098.0  247.17
248.34  0.0118409  0.0118409  0.0118409  1.446  4032.0  248.42
249.59  0.0118409  0.0118409  0.0118409  1.446  3968.0  249.67
250.83  0.0118409  0.0118409  0.0118409  1.446  3904.0  250.91
252.08  0.0118409  0.0118409  0.0118409  1.446  3842.0  252.16
253.32  0.0118409  0.0118409  0.0118409  1.446  3780.0  253.4
254.56  0.0118409  0.0118409  0.0118409  1.446  3720.0  254.64
255.82  0.0118409  0.0118409  0.0118409  1.608  3660.0  255.89
257.07  0.0118409  0.0118409  0.0118409  1.608  3602.0  257.15
258.31  0.0118409  0.0118409  0.0118409  1.608  3544.0  258.39
259.56  0.0118409  0.0118409  0.0118409  1.608  3487.0  259.64
260.8  0.0118409  0.0118409  0.0118409  1.608  3431.0  260.88
262.04  0.0118409  0.0118409  0.0118409  1.77  3376.0  262.12
263.29  0.0118409  0.0118409  0.0118409  1.77  3322.0  263.36
264.55  0.0118409  0.0118409  0.0118409  1.77  3269.0  264.62
265.81  0.0118409  0.0118409  0.0118409  1.77  3217.0  265.88
267.05  0.0118409  0.0118409  0.0118409  1.764  3165.0  267.12
268.31  0.0118409  0.0118409  0.0118409  1.77  3115.0  268.39
269.55  0.0118409  0.0118409  0.0118409  1.77  3065.0  269.63
270.79  0.0118409  0.0118409  0.0118409  1.932  3016.0  270.86
272.03  0.0118409  0.0118409  0.0118409  1.932  2968.0  272.1
273.27  0.0118409  0.0118409  0.0118409  1.932  2920.0  273.35
274.51  0.0118409  0.0118409  0.0117798  1.932  2873.0  274.59
275.77  0.0118409  0.0118409  0.0118409  2.088  2827.0  275.84
277.02  0.0118409  0.0118409  0.0118409  1.932  2782.0  277.1
278.27  0.0118409  0.0118409  0.0118409  2.088  2738.0  278.35
279.52  0.0118409  0.0118409  0.0118409  2.088  2694.0  279.6
280.77  0.0118409  0.0118409  0.0118409  2.088  2651.0  280.85
282.02  0.0118409  0.0118409  0.0118409  2.25  2608.0  282.09
283.26  0.0118409  0.0118409  0.0118409  2.25  2566.0  283.34
284.5  0.0118409  0.0118409  0.0118409  2.25  2525.0  284.58
285.76  0.0118409  0.0118409  0.0118409  2.25  2485.0  285.84
287.0  0.0117798  0.0118409  0.0118409  2.25  2445.0  287.08
288.24  0.0117798  0.0118409  0.0118409  2.25  2406.0  288.32
289.49  0.0118409  0.0118409  0.0118409  2.412  2367.0  289.56
290.73  0.0118409  0.0118409  0.0118409  2.412  2330.0  290.81
291.98  0.0118409  0.0118409  0.0118409  2.574  2292.0  292.05
293.23  0.0118409  0.0117798  0.0118409  2.412  2256.0  293.31
294.49  0.0117798  0.0118409  0.0118409  2.412  2219.0  294.57
295.73  0.0118409  0.0118409  0.0117798  2.412  2184.0  295.81
296.99  0.0118409  0.0118409  0.0118409  2.574  2149.0  297.07
298.23  0.0117798  0.0118409  0.0117798  2.574  2115.0  298.3
299.47  0.0118409  0.0117798  0.0118409  2.574  2081.0  299.55
300.71  0.0117798  0.0117798  0.0117798  2.742  2047.0  300.79
301.95  0.0118409  0.0117798  0.0117798  2.58  2015.0  302.03
303.2  0.0118409  0.0118409  0.0117798  2.904  1982.8  303.27
304.44  0.0118409  0.0117798  0.0117798  2.904  1951.1  304.52
305.68  0.0117798  0.0118409  0.0117798  2.904  1919.9  305.76
306.94  0.0117798  0.0117798  0.0118409  2.91  1889.1  307.01
308.2  0.0118409  0.0117798  0.0118409  2.904  1858.9  308.28
309.46  0.0117798  0.0117798  0.0118409  3.066  1829.2  309.54
310.7  0.0117798  0.0117798  0.0118409  3.066  1799.9  310.78
311.96  0.0117798  0.0117798  0.0118409  3.066  1771.1  312.04
313.2  0.0117798  0.0117798  0.0118409  3.234  1742.7  313.28
314.44  0.0117798  0.0117798  0.0118409  3.234  1714.8  314.52
315.69  0.0117798  0.0117798  0.0118409  3.222  1687.4  315.76
316.93  0.0117798  0.0117798  0.0118409  3.384  1660.4  317.01
318.18  0.0117798  0.0118409  0.0118409  3.216  1633.8  318.25
319.42  0.0117798  0.0117798  0.0118409  3.384  1607.7  319.49
320.65  0.0117798  0.0117798  0.0117798  3.378  1581.9  320.73
321.89  0.0117798  0.0117798  0.0117798  3.72  1556.6  321.97
323.21  0.0117798  0.0117798  0.0118409  3.546  1531.7  323.29
324.47  0.0117798  0.0117798  0.0118409  3.72  1507.2  324.54
325.73  0.0117798  0.0117798  0.0118409  3.708  1483.1  325.81
326.97  0.0117798  0.0117798  0.0117798  3.708  1459.3  327.06
328.22  0.0117798  0.0117798  0.0118409  3.87  1436.0  328.3
329.46  0.0117798  0.0117798  0.0118409  3.876  1413.0  329.54
330.72  0.0117798  0.0117798  0.0117798  3.87  1390.4  330.79
331.98  0.0117798  0.0117798  0.0117798  4.038  1368.1  332.06
333.23  0.0117798  0.0117798  0.0117798  4.038  1346.2  333.31
334.47  0.0117798  0.0117798  0.0117798  4.2  1324.7  334.55
335.73  0.0117798  0.0117798  0.0117798  4.2  1303.5  335.81
336.97  0.0117798  0.0117798  0.0117798  4.2  1282.6  337.05
338.22  0.0117798  0.0117798  0.0117798  4.362  1262.1  338.3
339.47  0.0117798  0.0117798  0.0117798  4.362  1241.9  339.55
340.72  0.0117798  0.0117798  0.0117798  4.524  1222.0  340.8
341.97  0.0117798  0.0117798  0.0117798  4.524  1202.4  342.05
343.22  0.0117798  0.0117798  0.0117798  4.536  1183.2  343.3
344.47  0.0117798  0.0117188  0.0117798  4.698  1164.3  344.55
345.73  0.0117798  0.0117188  0.0117798  4.86  1145.6  345.81
346.97  0.0117798  0.0117798  0.0117798  4.86  1127.3  347.05
348.22  0.0117188  0.0117798  0.0117798  4.842  1109.2  348.29
349.47  0.0117188  0.0117188  0.0117798  5.022  1091.5  349.55
350.73  0.0117188  0.0117188  0.0117798  5.022  1074.0  350.81
351.99  0.0117188  0.0117188  0.0117798  5.178  1056.8  352.07
353.25  0.0117188  0.0117188  0.0117798  5.178  1039.9  353.33
354.5  0.0117188  0.0117188  0.0117798  5.502  1023.3  354.57
355.74  0.0117188  0.0117188  0.0117798  5.34  1006.9  355.82
357.0  0.0117188  0.0117188  0.0117798  5.514  990.8  357.07
358.24  0.0117188  0.0117188  0.0117798  5.664  974.9  358.32
359.49  0.0117188  0.0117188  0.0117798  5.676  959.3  359.57
360.73  0.0117188  0.0117188  0.0117798  5.838  944.0  360.81
361.98  0.0117188  0.0117188  0.0117798  5.838  928.8  362.06
363.23  0.0117188  0.0117188  0.0117798  5.838  914.0  363.31
364.48  0.0117188  0.0116578  0.0117798  6.0  899.4  364.56
365.72  0.0117188  0.0117188  0.0117798  6.162  885.0  365.8
366.98  0.0116578  0.0117188  0.0117188  6.324  870.8  367.06
368.23  0.0116578  0.0117188  0.0117798  6.324  856.9  368.31
369.49  0.0117188  0.0116578  0.0117188  6.504  843.1  369.57
370.76  0.0116578  0.0116578  0.0117188  6.504  829.6  370.84
372.01  0.0116578  0.0116578  0.0117188  6.504  816.4  372.09
373.28  0.0116578  0.0116578  0.0117798  6.66  803.3  373.35
374.53  0.0116578  0.0116578  0.0117188  6.822  790.4  374.61
375.79  0.0116578  0.0116578  0.0117188  6.984  777.8  375.87
377.03  0.0116578  0.0116578  0.0117188  7.002  765.3  377.11
378.27  0.0116578  0.0116578  0.0117188  7.164  753.1  378.35
379.53  0.0115967  0.0116578  0.0117188  7.326  741.0  379.61
380.78  0.0115967  0.0116578  0.0117188  7.326  729.2  380.86
382.03  0.0115967  0.0115967  0.0117188  7.488  717.5  382.11
383.28  0.0116578  0.0116578  0.0116578  7.512  706.0  383.36
384.53  0.0116578  0.0115967  0.0117188  7.83  694.7  384.61
385.77  0.0115967  0.0115967  0.0117188  7.83  683.6  385.85
387.03  0.0115967  0.0115967  0.0117188  7.992  672.7  387.11
388.28  0.0116578  0.0115967  0.0117188  7.992  661.9  388.36
389.53  0.0115967  0.0115967  0.0116578  8.178  651.3  389.6
390.78  0.0115967  0.0115967  0.0117188  8.34  640.9  390.86
392.04  0.0115967  0.0115967  0.0117188  8.502  630.6  392.12
393.3  0.0115357  0.0115357  0.0117188  8.658  620.5  393.38
394.54  0.0115357  0.0115967  0.0116578  8.868  610.6  394.62
395.78  0.0115967  0.0115357  0.0116578  8.844  600.8  395.86
397.03  0.0114747  0.0115357  0.0116578  9.03  591.2  397.11
398.28  0.0115357  0.0114747  0.0116578  9.03  581.7  398.36
399.52  0.0114747  0.0114747  0.0116578  9.354  572.4  399.6
400.78  0.0114747  0.0114747  0.0116578  9.516  563.3  400.86
402.02  0.0114747  0.0114747  0.0116578  9.864  554.2  402.1
403.26  0.0114747  0.0114747  0.0116578  9.708  545.4  403.34
404.51  0.0114747  0.0114747  0.0116578  10.188  536.6  404.59
405.78  0.0114136  0.0114747  0.0116578  10.218  528.1  405.86
407.04  0.0114747  0.0114136  0.0116578  10.188  519.6  407.11
408.29  0.0114136  0.0114136  0.0116578  10.41  511.3  408.37
409.53  0.0114136  0.0114136  0.0116578  10.572  503.1  409.61
410.84  0.0114136  0.0114136  0.0115967  10.728  495.1  410.93
412.1  0.0114136  0.0114136  0.0115967  10.89  487.1  412.18
413.36  0.0113526  0.0113526  0.0115967  11.082  479.3  413.44
414.63  0.0113526  0.0113526  0.0115967  11.244  471.7  414.71
415.89  0.0113526  0.0113526  0.0115967  11.442  464.1  415.97
417.15  0.0113526  0.0113526  0.0115967  11.598  456.7  417.23
418.4  0.0112916  0.0113526  0.0115357  11.922  449.4  418.48
419.68  0.0112916  0.0112916  0.0115967  12.12  442.2  419.76
420.93  0.0112916  0.0112916  0.0115967  12.15  435.1  421.01
422.19  0.0112916  0.0112916  0.0115357  12.348  428.1  422.28
423.46  0.0112305  0.0112305  0.0114747  12.672  421.3  423.54
424.72  0.0112305  0.0112305  0.0115357  12.87  414.5  424.8
425.99  0.0111695  0.0112305  0.0115357  12.996  407.9  426.07
427.25  0.0112305  0.0112305  0.0114747  13.032  401.4  427.33
428.51  0.0111695  0.0112305  0.0114747  13.23  394.9  428.59
429.76  0.0111695  0.0111085  0.0114747  13.59  388.6  429.84
431.02  0.0111695  0.0111085  0.0114747  13.716  382.4  431.1
432.28  0.0111085  0.0111085  0.0114136  13.956  376.3  432.36
433.55  0.0111085  0.0110474  0.0114747  14.076  370.3  433.63
434.81  0.0110474  0.0110474  0.0114747  14.478  364.3  434.89
436.06  0.0110474  0.0110474  0.0114136  14.478  358.5  436.15
437.32  0.0110474  0.0110474  0.0114136  14.844  352.8  437.4
438.58  0.0109864  0.0109864  0.0114136  15.21  347.1  438.66
439.85  0.0109864  0.0109864  0.0114136  15.414  341.6  439.94
441.13  0.0109864  0.0109254  0.0113526  15.414  336.1  441.21
442.38  0.0109254  0.0109254  0.0113526  15.948  330.7  442.47
443.65  0.0109254  0.0109254  0.0113526  15.948  325.4  443.74
444.92  0.0108643  0.0109254  0.0112916  16.41  320.2  445.0
446.17  0.0108033  0.0108643  0.0113526  16.248  315.1  446.25
447.43  0.0108643  0.0108033  0.0112916  17.1  310.0  447.51
448.69  0.0107422  0.0108033  0.0113526  16.944  305.1  448.77
449.95  0.0107422  0.0108033  0.0112916  17.154  300.2  450.03
451.21  0.0107422  0.0107422  0.0112916  17.472  295.4  451.29
452.47  0.0106812  0.0106812  0.0112305  17.736  290.7  452.55
453.74  0.0106812  0.0106812  0.0111695  17.952  286.0  453.82
454.99  0.0106202  0.0106202  0.0112305  18.486  281.4  455.07
456.25  0.0106202  0.0105591  0.0112305  18.594  276.9  456.33
457.51  0.0105591  0.0105591  0.0111695  19.08  272.5  457.59
458.77  0.0104981  0.0104981  0.0111695  19.086  268.1  458.85
460.03  0.0104981  0.0104981  0.0110474  19.458  263.8  460.11
461.28  0.0104371  0.0104371  0.0110474  19.794  259.6  461.37
462.56  0.010376  0.010376  0.0111085  19.794  255.5  462.64
463.82  0.010376  0.010376  0.0110474  20.454  251.4  463.9
465.09  0.010315  0.010315  0.0110474  20.778  247.3  465.17
466.35  0.010254  0.010254  0.0109864  21.0  243.4  466.43
467.62  0.010254  0.010254  0.0109864  21.06  239.5  467.7
468.88  0.010254  0.0101929  0.0109254  21.576  235.7  468.96
470.14  0.0101929  0.0101319  0.0109254  21.642  231.9  470.23
471.41  0.0101319  0.0100709  0.0108643  22.026  228.2  471.49
472.67  0.0100098  0.0100098  0.0109254  22.644  224.5  472.75
473.94  0.0100098  0.0100098  0.0108643  22.644  220.9  474.02
475.2  0.00994879  0.00994879  0.0108643  23.268  217.4  475.28
476.46  0.00988775  0.00988775  0.0108033  23.406  213.9  476.54
477.72  0.00988775  0.00988775  0.0107422  23.73  210.5  477.8
478.98  0.00982672  0.00976568  0.0108033  24.18  207.1  479.06
480.24  0.00982672  0.00970465  0.0107422  24.486  203.8  480.32
481.51  0.00976568  0.00970465  0.0106812  24.972  200.5  481.59
482.76  0.00964361  0.00964361  0.0106812  24.966  197.37  482.85
484.04  0.00958258  0.00958258  0.0106202  25.68  194.21  484.12
485.29  0.00952154  0.00952154  0.0105591  26.004  191.1  485.37
486.55  0.00952154  0.00946051  0.0105591  26.244  188.05  486.63
487.81  0.00939947  0.00939947  0.0105591  26.808  185.04  487.89
489.08  0.00933844  0.0092774  0.0104981  27.21  182.07  489.16
490.34  0.0092774  0.00921637  0.0104371  27.624  179.16  490.43
491.6  0.00915533  0.00915533  0.010376  27.876  176.29  491.68
492.86  0.00921637  0.00915533  0.010315  27.966  173.47  492.94
494.12  0.00915533  0.00915533  0.010376  28.536  170.69  494.2
495.38  0.0090943  0.00903326  0.010254  28.818  167.96  495.46
496.64  0.00897223  0.00897223  0.010315  29.286  165.27  496.72
497.92  0.00878912  0.00878912  0.010254  29.31  162.63  498.0
499.17  0.00872809  0.00885016  0.0101929  30.0  160.03  499.25
500.44  0.00872809  0.00878912  0.0101319  30.516  157.46  500.52
501.71  0.00854498  0.00872809  0.0101929  30.732  154.94  501.79
503.04  0.00854498  0.00860602  0.0100709  31.482  152.46  503.13
504.32  0.00854498  0.00854498  0.0100098  31.68  150.02  504.41
505.58  0.00842291  0.00842291  0.00994879  32.046  147.62  505.67
506.84  0.00836188  0.00836188  0.00988775  32.574  145.26  506.93
508.1  0.00830084  0.00823981  0.00988775  32.886  142.94  508.19
509.38  0.00823981  0.00817877  0.00982672  33.258  140.65  509.47
510.66  0.00811774  0.00811774  0.00976568  33.744  138.4  510.75
511.94  0.0080567  0.0080567  0.00970465  34.284  136.18  512.02
513.21  0.00799567  0.00793463  0.00964361  34.83  134.0  513.29
514.47  0.00781256  0.00787359  0.00964361  34.962  131.86  514.55
515.73  0.00775149  0.00781256  0.00964361  34.962  129.75  515.81
517.0  0.00781256  0.00775149  0.00946051  35.82  127.67  517.08
518.27  0.00762942  0.00769046  0.00952154  35.748  125.63  518.35
519.53  0.00762942  0.00762942  0.00946051  36.102  123.62  519.61
520.8  0.00744632  0.00744632  0.00952154  37.596  121.64  520.89
522.07  0.00750735  0.00744632  0.00946051  37.11  119.69  522.16
523.36  0.00732425  0.00726321  0.0092774  38.886  117.77  523.45
524.62  0.00720218  0.00726321  0.00921637  38.016  115.89  524.71
525.89  0.00708011  0.00714114  0.00915533  38.436  114.04  525.97
527.17  0.00708011  0.00701907  0.00903326  39.912  112.21  527.26
528.45  0.006897  0.00695804  0.00903326  39.942  110.41  528.53
529.7  0.00677493  0.00677493  0.00897223  40.374  108.65  529.79
530.98  0.0067139  0.00677493  0.00891119  40.926  106.91  531.06
532.25  0.00665286  0.00665286  0.00878912  41.166  105.2  532.33
533.52  0.00653079  0.00659183  0.00885016  42.084  103.51  533.61
534.8  0.00653079  0.00640872  0.00866705  41.922  101.86  534.88
536.07  0.00634769  0.00628665  0.00860602  42.198  100.23  536.16
537.35  0.00622562  0.00628665  0.00860602  43.11  98.62  537.43
538.62  0.00616458  0.00616458  0.00848395  43.266  97.04  538.7
539.89  0.00604251  0.00604251  0.00848395  44.04  95.49  539.98
541.16  0.00598148  0.00592044  0.00836188  44.358  93.96  541.24
542.43  0.0058594  0.0058594  0.00836188  45.0  92.46  542.51
543.7  0.00573733  0.0058594  0.00823981  45.162  90.98  543.79
544.97  0.0056763  0.0056763  0.00811774  45.654  89.52  545.05
546.26  0.00561526  0.00555423  0.00811774  46.668  88.09  546.35
547.53  0.00543216  0.00555423  0.00799567  46.332  86.68  547.62
548.81  0.00549319  0.00531009  0.00799567  47.724  85.29  548.89
550.08  0.00543216  0.00518802  0.00799567  47.25  83.93  550.17
551.35  0.00531009  0.00512698  0.00793463  47.79  82.58  551.43
552.63  0.00500491  0.00524905  0.00762942  49.29  81.26  552.71
553.9  0.00494388  0.00500491  0.00769046  49.644  79.96  553.98
555.16  0.00494388  0.00482181  0.00781256  48.24  78.68  555.24
556.43  0.00494388  0.00500491  0.00738528  50.916  77.42  556.52
557.71  0.00482181  0.00500491  0.00720218  52.122  76.18  557.79
558.98  0.00482181  0.00439456  0.00762942  49.074  74.96  559.07
560.25  0.00494388  0.0046387  0.00708011  52.98  73.76  560.34
561.51  0.00451663  0.00408939  0.00756839  49.776  72.58  561.6
562.78  0.00482181  0.00439456  0.00683597  55.518  71.42  562.86
564.05  0.00378419  0.00396731  0.00769046  48.642  70.28  564.14
565.32  0.00366212  0.00384523  0.00762942  49.506  69.15  565.41
566.6  0.00476077  0.00427249  0.00628665  58.452  68.05  566.68
567.88  0.00366212  0.00329591  0.00695804  58.158  66.96  567.96
569.16  0.00390628  0.00335695  0.00628665  61.434  65.88  569.24
570.44  0.00433353  0.00469974  0.00732425  46.986  64.83  570.52
571.72  0.00457767  0.00421146  0.00592044  53.262  63.79  571.81
572.99  0.00476077  0.0046387  0.00640872  47.43  62.77  573.08
574.27  0.00317384  0.00341798  0.00738528  58.992  61.77  574.35
575.54  0.00457767  0.00451663  0.00659183  46.86  60.78  575.62
576.81  0.00378419  0.00384523  0.00579837  47.772  59.81  576.89
578.08  0.00427249  0.00439456  0.00665286  48.204  58.85  578.16
579.35  0.00372316  0.00347902  0.00714114  64.044  57.91  579.44
580.61  0.00268556  0.00305177  0.00543216  49.002  56.98  580.7
581.88  0.0027466  0.00238039  0.0058594  66.528  56.07  581.97
583.15  0.00366212  0.00323488  0.00659183  67.164  55.17  583.24
584.43  0.00366212  0.00311281  0.00628665  67.83  54.29  584.51
585.7  0.00299074  0.00244142  0.00561526  62.946  53.42  585.79
586.98  0.00213625  0.00238039  0.00518802  52.41  52.56  587.07
588.25  0.00286867  0.00341798  0.00634769  62.766  51.72  588.33
589.53  0.0027466  0.00219728  0.00512698  57.642  50.89  589.62
590.8  0.00250246  0.00305177  0.00598148  64.566  50.08  590.89
592.16  0.00256349  0.00262453  0.00555423  61.608  49.28  592.24
593.43  0.00256349  0.00256349  0.00543216  61.866  48.49  593.51
594.7  0.00244142  0.00250246  0.00543216  62.652  47.71  594.79
595.99  0.00238039  0.00238039  0.00531009  62.472  46.95  596.08
597.28  0.00238039  0.00238039  0.00524905  62.952  46.2  597.37
598.56  0.00231935  0.00225832  0.00518802  63.108  45.46  598.65
599.83  0.00225832  0.00225832  0.00512698  63.93  44.73  599.92
601.1  0.00219728  0.00219728  0.00506595  64.278  44.01  601.19
602.39  0.00213625  0.00213625  0.00494388  64.29  43.31  602.48
603.66  0.00207521  0.00207521  0.00494388  64.98  42.62  603.75
604.95  0.00201418  0.00201418  0.00482181  65.004  41.93  605.05
606.23  0.00195314  0.00195314  0.00482181  65.556  41.26  606.31
607.52  0.0018921  0.0018921  0.00469974  65.958  40.6  607.6
608.79  0.00183106  0.0018921  0.00469974  66.534  39.95  608.88
610.06  0.00183106  0.00183106  0.00457767  66.75  39.31  610.15
611.34  0.00177003  0.00177003  0.00451663  66.798  38.68  611.43
612.62  0.00170899  0.00170899  0.0044556  67.41  38.06  612.7
613.9  0.00164796  0.00164796  0.00439456  67.878  37.46  613.99
615.18  0.00158692  0.00164796  0.00433353  68.118  36.86  615.27
616.46  0.00158692  0.00158692  0.00427249  68.196  36.27  616.55
617.75  0.00152589  0.00152589  0.00421146  68.448  35.69  617.83
619.04  0.00152589  0.00146485  0.00421146  68.7  35.11  619.13
620.33  0.00146485  0.00146485  0.00408939  69.228  34.55  620.42
621.6  0.00140382  0.00140382  0.00408939  69.498  34.0  621.69
622.87  0.00134278  0.00134278  0.00402835  70.218  33.45  622.96
624.15  0.00134278  0.00134278  0.00390628  69.894  32.92  624.23
625.42  0.00128175  0.00128175  0.00390628  70.182  32.39  625.51
626.69  0.00128175  0.00128175  0.00384523  70.314  31.87  626.78
627.96  0.00122071  0.00122071  0.00378419  71.088  31.36  628.05
629.25  0.00115968  0.00115968  0.00372316  71.244  30.86  629.33
630.53  0.00115968  0.00115968  0.00366212  71.568  30.37  630.62
631.81  0.00115968  0.00115968  0.00354005  71.232  29.88  631.9
633.09  0.00109864  0.00109864  0.00354005  72.234  29.4  633.17
634.38  0.00103761  0.00103761  0.00347902  72.42  28.93  634.47
635.67  0.00103761  0.00103761  0.00347902  72.252  28.47  635.76
636.95  0.00097657  0.00097657  0.00341798  72.444  28.01  637.04
638.22  0.000915531  0.000915531  0.00335695  73.356  27.57  638.31
639.49  0.000915531  0.000915531  0.00329591  73.026  27.12  639.58
640.78  0.000915531  0.000915531  0.00329591  73.578  26.69  640.87
642.08  0.000854496  0.000854496  0.00323488  73.416  26.26  642.17
643.37  0.000854496  0.000854496  0.00317384  73.644  25.84  643.46
644.66  0.000854496  0.000854496  0.00311281  74.052  25.43  644.75
645.95  0.000793461  0.000793461  0.00305177  74.31  25.02  646.04
647.24  0.000793461  0.000793461  0.00299074  74.748  24.62  647.33
648.53  0.000793461  0.000793461  0.00299074  74.58  24.23  648.62
649.8  0.000732426  0.000732426  0.0029297  75.03  23.84  649.89
651.08  0.000732426  0.000732426  0.0029297  75.486  23.46  651.16
652.35  0.000732426  0.000732426  0.00286867  75.324  23.08  652.44
653.64  0.00067139  0.00067139  0.00280763  75.636  22.71  653.73
654.93  0.000610355  0.000610355  0.0027466  76.128  22.35  655.02
656.21  0.000610355  0.000610355  0.00268556  75.966  21.99  656.3
657.48  0.000610355  0.000610355  0.00268556  76.476  21.64  657.58
658.77  0.00054932  0.00054932  0.00262453  77.004  21.29  658.86
660.06  0.00054932  0.00054932  0.00262453  76.842  20.95  660.15
661.35  0.00054932  0.00054932  0.00256349  77.232  20.62  661.44
662.63  0.00054932  0.00054932  0.00250246  77.064  20.29  662.72
663.92  0.000488285  0.000488285  0.00244142  77.64  19.966  664.01
665.19  0.000488285  0.000488285  0.00244142  77.472  19.646  665.28
666.48  0.000488285  0.000488285  0.00244142  77.472  19.332  666.57
667.75  0.000488285  0.000488285  0.00238039  77.904  19.023  667.84
669.04  0.000488285  0.000488285  0.00231935  77.736  18.718  669.13
670.33  0.000427248  0.000427248  0.00225832  78.366  18.419  670.42
671.6  0.000427248  0.000427248  0.00225832  78.198  18.124  671.69
672.89  0.000427248  0.000427248  0.00219728  78.858  17.834  672.98
674.16  0.000366213  0.000366213  0.00219728  79.542  17.548  674.25
675.44  0.000427248  0.000427248  0.00219728  78.516  17.267  675.53
676.72  0.000366213  0.000366213  0.00213625  79.218  16.991  676.81
677.99  0.000366213  0.000366213  0.00207521  79.044  16.719  678.08
679.26  0.000366213  0.000366213  0.00201418  79.938  16.451  679.35
680.53  0.000305178  0.000305178  0.00201418  79.776  16.188  680.62
681.81  0.000366213  0.000366213  0.00195314  79.44  15.929  681.89
683.1  0.000305178  0.000305178  0.00195314  79.44  15.674  683.19
684.38  0.000305178  0.000366213  0.0018921  80.052  15.423  684.47
685.7  0.000305178  0.000305178  0.0018921  80.052  15.176  685.77
686.94  0.000305178  0.000305178  0.0018921  79.878  14.933  687.01
688.16  0.000244142  0.000244142  0.00183106  80.706  14.694  688.23
689.39  0.000244142  0.000244142  0.00183106  80.538  14.459  689.46
690.62  0.000244142  0.000244142  0.00177003  80.364  14.228  690.69
691.86  0.000244142  0.000244142  0.00170899  81.252  14.0  691.93
693.1  0.000244142  0.000244142  0.00170899  81.252  13.776  693.17
694.34  0.000244142  0.000244142  0.00170899  81.084  13.556  694.41
695.57  0.000244142  0.000244142  0.00170899  81.084  13.339  695.64
696.81  0.000244142  0.000244142  0.00164796  80.91  13.125  696.88
698.05  0.000183106  0.000183106  0.00158692  81.87  12.915  698.12
699.27  0.000183106  0.000183106  0.00158692  81.702  12.708  699.35
700.51  0.000183106  0.000183106  0.00158692  81.528  12.505  700.59
701.74  0.000183106  0.000183106  0.00158692  81.528  12.305  701.81
702.97  0.000183106  0.000183106  0.00152589  81.348  12.108  703.04
704.2  0.000183106  0.000183106  0.00146485  82.566  11.914  704.27
705.42  0.000183106  0.000183106  0.00146485  82.404  11.723  705.49
706.65  0.000183106  0.000183106  0.00140382  82.056  11.536  706.72
707.89  0.000183106  0.000183106  0.00140382  82.056  11.351  707.97
709.12  0.000183106  0.000183106  0.00140382  82.056  11.169  709.19
710.35  0.000122071  0.000122071  0.00134278  83.208  10.991  710.42
711.57  0.000122071  0.000122071  0.00134278  83.046  10.815  711.64
712.81  0.000122071  0.000122071  0.00134278  83.046  10.642  712.88
714.03  0.000122071  0.000122071  0.00128175  82.878  10.471  714.1
715.27  0.000122071  0.000122071  0.00128175  82.692  10.304  715.34
716.5  0.000122071  0.000122071  0.00128175  84.144  10.139  716.57
717.72  0.000122071  0.000122071  0.00122071  82.506  9.977  717.8
718.95  0.000122071  0.000122071  0.00122071  83.988  9.817  719.02
720.18  0.000122071  0.000122071  0.00122071  82.302  9.66  720.25
721.4  0.000122071  0.000122071  0.00115968  83.658  9.505  721.47
722.63  0.000122071  0.000122071  0.00115968  83.658  9.353  722.7
723.85  0.000122071  0.000122071  0.00115968  83.478  9.203  723.93
725.08  0.000122071  0.000122071  0.00115968  83.478  9.056  725.16
726.31  0.000122071  0.000122071  0.00115968  83.478  8.911  726.39
727.54  0.000122071  6.10356e-05  0.00109864  84.954  8.768  727.62
728.79  6.10356e-05  6.10356e-05  0.00109864  84.804  8.628  728.86
730.02  0.000122071  0.000122071  0.00109864  83.088  8.49  730.09
731.24  0.000122071  0.000122071  0.00103761  82.878  8.354  731.32
732.47  6.10356e-05  6.10356e-05  0.00103761  84.642  8.22  732.54
733.71  6.10356e-05  6.10356e-05  0.00097657  84.474  8.089  733.78
734.93  6.10356e-05  6.10356e-05  0.00097657  84.474  7.959  735.01
736.16  6.10356e-05  6.10356e-05  0.00097657  84.288  7.832  736.23
737.39  6.10356e-05  6.10356e-05  0.00097657  84.288  7.707  737.46
738.61  6.10356e-05  6.10356e-05  0.000915531  86.058  7.583  738.68
739.84  6.10356e-05  6.10356e-05  0.000915531  84.096  7.462  739.91
741.07  6.10356e-05  6.10356e-05  0.000915531  83.886  7.342  741.14
742.3  6.10356e-05  6.10356e-05  0.000915531  83.886  7.225  742.37
743.53  6.10356e-05  6.10356e-05  0.000854496  85.764  7.109  743.6
744.75  6.10356e-05  6.10356e-05  0.000854496  83.658  6.995  744.83
745.98  6.10356e-05  6.10356e-05  0.000854496  85.764  6.884  746.05
747.22  6.10356e-05  6.10356e-05  0.000854496  85.602  6.773  747.3
748.45  6.10356e-05  6.10356e-05  0.000854496  85.602  6.665  748.52
749.67  6.10356e-05  6.10356e-05  0.000793461  85.428  6.558  749.74
750.88  6.10356e-05  6.10356e-05  0.000793461  85.428  6.453  750.96
752.12  6.10356e-05  6.10356e-05  0.000793461  85.428  6.35  752.19
753.35  0.0  6.10356e-05  0.000793461  85.236  6.248  753.42
754.58  6.10356e-05  6.10356e-05  0.000793461  85.236  6.148  754.66
755.81  6.10356e-05  6.10356e-05  0.000732426  85.032  6.05  755.88
757.04  0.0  0.0  0.000732426  87.51  5.953  757.11
758.27  6.10356e-05  6.10356e-05  0.000732426  84.804  5.858  758.35
759.5  6.10356e-05  6.10356e-05  0.000732426  87.396  5.764  759.57
760.73  6.10356e-05  6.10356e-05  0.000732426  84.804  5.672  760.8
761.96  6.10356e-05  6.10356e-05  0.000732426  84.804  5.581  762.03
763.2  0.0  0.0  0.00067139  87.276  5.492  763.26
764.41  0.0  0.0  0.00067139  87.276  5.404  764.47
765.62  0.0  0.0  0.000610355  87.138  5.317  765.69
766.85  0.0  0.0  0.000610355  87.138  5.232  766.91
768.07  0.0  0.0  0.000610355  87.138  5.148  768.13
769.29  0.0  0.0  0.000610355  87.138  5.066  769.35
771.05  0.0  0.0  0.000610355  87.138  4.985  771.11
772.75  0.0  0.0  0.000610355  86.988  4.905  772.81
774.45  0.0  0.0  0.00054932  86.82  4.827  774.51
776.15  0.0  0.0  0.000610355  86.988  4.749  776.2
777.85  0.0  0.0  0.00054932  86.82  4.673  777.91
779.56  0.0  0.0  0.00054932  86.82  4.599  779.62
781.27  0.0  0.0  0.00054932  86.82  4.525  781.32
782.98  0.0  0.0  0.00054932  86.634  4.453  783.04
784.68  0.0  0.0  0.00054932  86.634  4.381  784.74
786.38  0.0  0.0  0.00054932  86.634  4.311  786.44
788.09  0.0  0.0  0.000488285  86.424  4.242  788.15
789.79  0.0  0.0  0.000488285  86.424  4.174  789.85
791.5  0.0  0.0  0.000488285  86.424  4.107  791.56
793.21  0.0  0.0  0.000488285  86.424  4.042  793.26
794.9  0.0  0.0  0.000488285  86.184  3.977  794.96
796.61  0.0  0.0  0.000488285  86.184  3.913  796.67
798.32  0.0  0.0  0.000488285  86.184  3.851  798.38
800.03  0.0  0.0  0.000488285  86.184  3.789  800.09
801.73  0.0  0.0  0.000427248  85.914  3.728  801.79
803.43  0.0  0.0  0.000427248  85.914  3.669  803.49
805.13  0.0  0.0  0.000488285  90.0  3.61  805.18
806.81  0.000183106  0.000183106  0.000427248  65.226  3.552  806.88
808.53  0.0  0.0  0.000427248  85.602  3.495  808.58
810.24  6.10356e-05  6.10356e-05  0.000366213  80.538  3.439  810.31
811.95  0.0  0.0  0.000427248  85.602  3.384  812.01
813.65  0.0  0.0  0.000427248  90.0  3.33  813.7
815.36  0.0  0.0  0.000427248  85.602  3.277  815.42
817.07  0.0  0.0  0.000366213  85.236  3.224  817.13
818.78  0.0  0.0  0.000366213  90.0  3.173  818.83
820.49  0.0  0.0  0.000366213  90.0  3.122  820.54
822.18  0.0  0.0  0.000366213  85.236  3.072  822.24
823.89  0.0  0.0  0.000427248  90.0  3.023  823.94
825.58  0.0  0.0  0.000366213  84.804  2.974  825.64
827.27  0.0  0.0  0.000305178  90.0  2.927  827.33
828.96  0.0  0.0  0.000305178  90.0  2.88  829.02
830.64  0.0  0.0  0.000366213  84.804  2.834  830.7
832.35  0.0  0.0  0.000244142  82.878  2.789  832.41
834.07  0.0  0.0  0.000183106  90.0  2.744  834.12
835.76  0.0  0.0  0.000244142  90.0  2.7  835.81
837.45  0.0  0.0  0.000305178  84.288  2.657  837.51
839.15  0.0  0.0  0.000244142  90.0  2.614  839.2
840.83  0.0  0.0  0.000305178  84.288  2.572  840.89
842.54  0.0  0.0  0.000244142  90.0  2.531  842.59
844.24  0.0  0.0  0.000244142  90.0  2.491  844.29
845.93  0.0  0.0  0.000305178  90.0  2.451  845.98
847.61  0.0  0.0  0.000305178  84.288  2.412  847.67
849.32  0.0  0.0  0.000244142  83.658  2.373  849.37
851.02  0.0  0.0  0.000244142  83.658  2.335  851.08
852.73  0.0  0.0  0.000244142  83.658  2.298  852.79
854.43  0.0  0.0  0.000244142  82.878  2.261  854.49
856.13  0.0  0.0  0.000244142  83.658  2.225  856.19
857.84  0.0  0.0  0.000244142  90.0  2.189  857.9
859.53  0.0  0.0  0.000244142  90.0  2.154  859.59
861.22  0.0  0.0  0.000244142  83.658  2.12  861.28
862.95  0.0  0.0  0.000244142  90.0  2.086  863.0
864.63  0.0  0.0  0.000244142  82.878  2.052  864.69
866.34  0.0  0.0  0.000244142  90.0  2.019  866.39
868.03  0.0  0.0  0.000244142  82.878  1.9875  868.09
869.73  0.0  0.0  0.000183106  90.0  1.9557  869.78
871.42  0.0  0.0  0.000244142  90.0  1.9244  871.48
873.12  0.0  0.0  0.000183106  81.87  1.8936  873.17
874.82  0.0  0.0  0.000183106  81.87  1.8632  874.88
876.52  0.0  0.0  0.000183106  90.0  1.8334  876.58
878.21  0.0  0.0  0.000183106  90.0  1.8041  878.27
879.89  0.0  0.0  0.000183106  90.0  1.7752  879.95
881.57  -6.10356e-05  -6.10356e-05  0.000183106  90.0  1.7468  881.64
883.27  0.0  0.0  0.000183106  90.0  1.7188  883.32
884.97  0.0  0.0  0.000183106  90.0  1.6913  885.02
886.64  0.0  0.0  0.000183106  90.0  1.6643  886.7
888.32  0.0  0.0  0.000183106  80.538  1.6376  888.38
890.03  0.0  0.0  0.000183106  80.538  1.6114  890.09
891.75  0.0  0.0  0.000183106  90.0  1.5856  891.8
893.43  0.0  0.0  0.000122071  90.0  1.5602  893.49
898.66  0.0  0.0  0.000183106  80.538  1.5353  898.72
903.86  0.0  0.0  0.000183106  90.0  1.5107  903.91
909.04  0.0  0.0  0.000122071  90.0  1.4865  909.09
914.23  0.0  0.0  0.000122071  90.0  1.4627  914.28
919.41  0.0  0.0  0.000183106  90.0  1.4393  919.46
924.58  0.0  0.0  0.000183106  90.0  1.4163  924.64
929.76  0.0  0.0  0.000183106  90.0  1.3936  929.81
934.94  0.0  0.0  0.000122071  90.0  1.3713  934.99
940.14  0.0  0.0  0.000122071  90.0  1.3494  940.19
945.32  0.0  0.0  0.000122071  90.0  1.3278  945.37
950.5  0.0  0.0  0.000122071  90.0  1.3065  950.55
955.69  0.0  0.0  0.000122071  90.0  1.2856  955.74
960.86  0.0  0.0  0.000122071  90.0  1.265  960.92
966.04  0.0  0.0  0.000122071  78.69  1.2448  966.1
971.25  0.0  0.0  0.000122071  90.0  1.2249  971.3
976.44  0.0  0.0  0.000122071  78.69  1.2053  976.5
981.63  0.0  0.0  0.000122071  90.0  1.186  981.69
986.82  0.0  0.0  0.000122071  90.0  1.167  986.87
992.01  0.0  0.0  0.000122071  90.0  1.1483  992.06
997.19  0.0  0.0  0.000122071  90.0  1.1299  997.24
1002.38  0.0  0.0  0.000122071  90.0  1.1118  1002.43
1007.57  0.0  0.0  0.000122071  90.0  1.0941  1007.62
1012.74  0.0  0.0  0.000122071  90.0  1.0765  1012.79
1017.92  0.0  0.0  0.000122071  90.0  1.0593  1017.97
1023.11  0.0  0.0  0.000122071  90.0  1.0424  1023.16
1028.29  0.0  0.0  0.000122071  90.0  1.0257  1028.34
1033.47  0.0  0.0  0.000122071  90.0  1.0093  1033.52
1038.65  0.0  0.0  0.000122071  90.0  0.9931  1038.7
1043.83  0.0  0.0  0.000122071  90.0  0.9772  1043.88
1049.01  0.0  0.0  0.000122071  90.0  0.9616  1049.07
1054.2  0.0  0.0  0.000122071  90.0  0.9462  1054.26
1059.4  0.0  0.0  0.000122071  90.0  0.931  1059.45
1064.58  0.0  0.0  0.000122071  90.0  0.9161  1064.64
1069.78  0.0  0.0  6.10356e-05  90.0  0.9015  1069.83
1074.95  0.0  0.0  6.10356e-05  90.0  0.887  1075.01
1080.14  0.0  0.0  6.10356e-05  90.0  0.8729  1080.19
1085.33  0.0  0.0  6.10356e-05  90.0  0.8589  1085.38
1090.52  0.0  0.0  6.10356e-05  90.0  0.8451  1090.57
1095.69  0.0  0.0  6.10356e-05  90.0  0.8316  1095.74
1100.88  0.0  0.0  6.10356e-05  90.0  0.8183  1100.93
1106.07  0.0  0.0  6.10356e-05  90.0  0.8052  1106.12
1111.26  0.0  0.0  6.10356e-05  90.0  0.7923  1111.31
1116.45  0.0  0.0  6.10356e-05  90.0  0.7796  1116.5
1121.63  0.0  0.0  6.10356e-05  90.0  0.7672  1121.68
1126.81  0.0  0.0  6.10356e-05  90.0  0.7549  1126.86
1132.0  0.0  0.0  6.10356e-05  90.0  0.7428  1132.05
1137.2  0.0  0.0  6.10356e-05  90.0  0.7309  1137.25
1142.38  0.0  0.0  6.10356e-05  90.0  0.7192  1142.43
1147.57  0.0  0.0  6.10356e-05  90.0  0.7077  1147.63
1152.76  0.0  0.0  6.10356e-05  90.0  0.6964  1152.81
1157.94  0.0  0.0  6.10356e-05  90.0  0.6852  1157.99
1163.12  0.0  0.0  6.10356e-05  90.0  0.6743  1163.17
1168.3  0.0  0.0  6.10356e-05  90.0  0.6635  1168.35
1173.48  0.0  0.0  6.10356e-05  90.0  0.6529  1173.53
1178.66  0.0  0.0  6.10356e-05  90.0  0.6424  1178.71
1183.84  0.0  0.0  6.10356e-05  63.438  0.6321  1183.89
1189.03  0.0  0.0  6.10356e-05  90.0  0.622  1189.08
1194.21  0.0  0.0  6.10356e-05  90.0  0.612  1194.26
1199.39  6.10356e-05  6.10356e-05  6.10356e-05  26.562  0.6023  1199.45
1204.6  0.0  0.0  0.0  45.0  0.5926  1204.65
1209.78  0.0  0.0  6.10356e-05  90.0  0.5831  1209.83
1214.96  0.0  0.0  6.10356e-05  90.0  0.5738  1215.01
1220.14  0.0  0.0  6.10356e-05  90.0  0.5646  1220.19
1225.33  0.0  0.0  6.10356e-05  90.0  0.5556  1225.38
1230.51  0.0  0.0  6.10356e-05  90.0  0.5467  1230.56
1235.7  0.0  0.0  6.10356e-05  90.0  0.5379  1235.75
1240.88  0.0  0.0  6.10356e-05  90.0  0.5293  1240.93
1246.06  0.0  0.0  6.10356e-05  90.0  0.5209  1246.11
1251.24  0.0  0.0  6.10356e-05  90.0  0.5125  1251.29
1256.43  0.0  0.0  6.10356e-05  90.0  0.5043  1256.48
1271.64  0.0  0.0  6.10356e-05  90.0  0.4962  1271.69
1286.83  0.0  0.0  6.10356e-05  63.438  0.4883  1286.88
1302.02  0.0  0.0  6.10356e-05  90.0  0.4805  1302.07
1317.2  0.0  0.0  6.10356e-05  90.0  0.4728  1317.25
1332.4  0.0  0.0  6.10356e-05  90.0  0.4652  1332.45
1347.59  0.0  0.0  6.10356e-05  90.0  0.4578  1347.64
1362.76  0.0  0.0  6.10356e-05  90.0  0.4505  1362.81
1377.94  0.0  0.0  6.10356e-05  90.0  0.4432  1377.99
1393.13  0.0  0.0  6.10356e-05  90.0  0.4362  1393.18
1408.32  0.0  0.0  6.10356e-05  90.0  0.4292  1408.37
1423.51  0.0  0.0  6.10356e-05  90.0  0.4223  1423.56
1438.68  0.0  0.0  6.10356e-05  90.0  0.4155  1438.73
1453.87  0.0  0.0  6.10356e-05  90.0  0.4089  1453.92
1469.05  0.0  0.0  6.10356e-05  90.0  0.4024  1469.1
1484.24  0.0  0.0  6.10356e-05  90.0  0.3959  1484.29
1499.43  0.0  0.0  6.10356e-05  90.0  0.3896  1499.48
1514.63  0.0  0.0  6.10356e-05  90.0  0.3833  1514.68
1529.81  0.0  0.0  6.10356e-05  90.0  0.3772  1529.86
1544.99  0.0  0.0  6.10356e-05  90.0  0.3712  1545.04
1560.18  0.0  0.0  6.10356e-05  90.0  0.3652  1560.23
1575.36  0.0  0.0  0.0  90.0  0.3594  1575.4
1590.53  0.0  0.0  0.0  90.0  0.3536  1590.58
1605.71  0.0  0.0  0.0  90.0  0.348  1605.76
1620.89  0.0  0.0  0.0  90.0  0.3424  1620.94
1636.07  0.0  0.0  0.0  90.0  0.3369  1636.11
1651.25  0.0  0.0  0.0  90.0  0.3315  1651.29
1666.43  0.0  0.0  0.0  90.0  0.3262  1666.47
1681.6  0.0  0.0  0.0  90.0  0.321  1681.65
1696.78  0.0  0.0  0.0  90.0  0.3159  1696.83
1711.96  0.0  0.0  0.0  90.0  0.3108  1712.0
1727.13  0.0  0.0  0.0  90.0  0.3058  1727.18
1742.31  0.0  0.0  0.0  90.0  0.3009  1742.36
1757.48  0.0  0.0  0.0  90.0  0.2961  1757.53
1772.66  0.0  0.0  0.0  90.0  0.2914  1772.71
1787.83  0.0  0.0  0.0  90.0  0.2867  1787.88
1803.01  0.0  0.0  0.0  90.0  0.2821  1803.06
1818.21  0.0  0.0  0.0  90.0  0.2776  1818.25
1833.39  0.0  0.0  0.0  90.0  0.2732  1833.44
1848.57  0.0  0.0  0.0  90.0  0.2688  1848.61
1863.74  0.0  0.0  0.0  90.0  0.2645  1863.79
1878.92  0.0  0.0  0.0  90.0  0.2603  1878.97
1894.1  0.0  0.0  0.0  90.0  0.2561  1894.15
1909.28  0.0  0.0  0.0  90.0  0.252  1909.32
1924.45  0.0  0.0  0.0  90.0  0.248  1924.5
1939.63  0.0  0.0  0.0  90.0  0.244  1939.68
1954.81  0.0  0.0  0.0  90.0  0.2401  1954.86
1969.99  0.0  0.0  0.0  90.0  0.2363  1970.04
1985.17  0.0  0.0  0.0  90.0  0.2325  1985.22
2000.36  0.0  0.0  0.0  90.0  0.2287  2000.41
2015.55  0.0  0.0  0.0  90.0  0.2251  2015.59
2030.72  0.0  0.0  0.0  90.0  0.2215  2030.77
2045.91  0.0  0.0  0.0  90.0  0.2179  2045.96
2061.12  0.0  0.0  0.0  90.0  0.2145  2061.17
2076.28  0.0  0.0  0.0  90.0  0.211  2076.33
2091.46  0.0  0.0  0.0  90.0  0.2076  2091.51
2106.64  0.0  0.0  0.0  90.0  0.2043  2106.69
2121.81  0.0  0.0  0.0  90.0  0.201  2121.86
2136.98  0.0  0.0  0.0  90.0  0.1978  2137.03
2152.17  0.0  0.0  0.0  90.0  0.1947  2152.22
2167.35  0.0  0.0  0.0  90.0  0.1916  2167.39
2182.52  0.0  0.0  0.0  90.0  0.1885  2182.57
2197.7  0.0  0.0  0.0  90.0  0.1855  2197.75
2212.88  0.0  0.0  0.0  90.0  0.1825  2212.92
2228.06  0.0  0.0  0.0  90.0  0.1796  2228.11
2243.26  0.0  0.0  0.0  90.0  0.1767  2243.31
2258.43  0.0  0.0  0.0  90.0  0.1739  2258.47
2273.61  0.0  0.0  0.0  90.0  0.1711  2273.66
2288.79  0.0  0.0  0.0  90.0  0.1684  2288.84
2303.97  0.0  0.0  0.0  90.0  0.1657  2304.02
2319.14  0.0  0.0  0.0  90.0  0.163  2319.19
2334.32  0.0  0.0  0.0  90.0  0.1604  2334.37
2349.5  0.0  0.0  0.0  90.0  0.1578  2349.55
2364.69  0.0  0.0  0.0  90.0  0.1553  2364.73
2414.9  0.0  0.0  0.0  90.0  0.1528  2414.95
2465.07  0.0  0.0  0.0  90.0  0.1504  2465.11
2515.24  0.0  0.0  0.0  90.0  0.148  2515.29
2565.42  0.0  0.0  0.0  90.0  0.1456  2565.46
2615.59  0.0  0.0  0.0  90.0  0.1433  2615.64
2665.77  0.0  0.0  0.0  90.0  0.141  2665.82
2715.95  0.0  0.0  0.0  90.0  0.1387  2716.0
2766.13  0.0  0.0  0.0  90.0  0.1365  2766.18
2816.31  0.0  0.0  0.0  90.0  0.1343  2816.36
2866.49  0.0  0.0  0.0  90.0  0.1322  2866.53
2916.66  0.0  0.0  0.0  90.0  0.1301  2916.71
2966.84  0.0  0.0  0.0  90.0  0.128  2966.88
3017.01  0.0  0.0  0.0  90.0  0.1259  3017.06
3067.19  0.0  0.0  0.0  90.0  0.1239  3067.24
3117.36  0.0  0.0  0.0  90.0  0.1219  3117.41
3167.54  0.0  0.0  0.0  90.0  0.12  3167.59
3217.71  0.0  0.0  0.0  90.0  0.1181  3217.76
3267.89  0.0  0.0  0.0  0.0  0.1162  3267.93
3318.06  0.0  0.0  0.0  90.0  0.1143  3318.11
3368.24  0.0  0.0  0.0  0.0  0.1125  3368.29
3418.42  0.0  0.0  0.0  0.0  0.1107  3418.46
3468.6  0.0  0.0  0.0  0.0  0.1089  3468.64
3518.76  0.0  0.0  0.0  0.0  0.1072  3518.81
3568.95  0.0  0.0  0.0  0.0  0.1054  3568.99
3619.12  0.0  0.0  0.0  0.0  0.1038  3619.17
3669.3  0.0  0.0  0.0  0.0  0.1021  3669.34
3719.47  0.0  0.0  0.0  0.0  0.1005  3719.52
3769.65  0.0  0.0  0.0  0.0  0.0989  3769.7
3819.84  0.0  0.0  0.0  0.0  0.0973  3819.89
3870.02  0.0  0.0  0.0  0.0  0.0957  3870.07
3920.2  0.0  0.0  0.0  90.0  0.0942  3920.25
3970.39  0.0  0.0  0.0  0.0  0.0927  3970.43
4020.57  0.00054932  0.00054932  0.00054932  6.708  0.0912  4020.63
4070.78  0.0  0.0  0.0  0.0  0.0897  4070.82
4120.96  0.117676  0.117859  0.17682  48.15  0.0883  4121.02
4171.15  0.67841  0.67841  1.09217  61.092  9.288  4171.23
4221.37  0.898991  0.898991  0.941532  17.256  1.6142  4221.43
